SpectraSuite Data File
++++++++++++++++++++++++++++++++++++
Date: Mon Oct 13 14:56:59 PDT 2014
User: ugastro
Dark Spectrum Present: No
Reference Spectrum Present: No
Number of Sampled Component Spectra: 1
Spectrometers: USB2G5981
Integration Time (usec): 100000 (USB2G5981)
Spectra Averaged: 1 (USB2G5981)
Boxcar Smoothing: 0 (USB2G5981)
Correct for Electrical Dark: No (USB2G5981)
Strobe/Lamp Enabled: No (USB2G5981)
Correct for Detector Non-linearity: No (USB2G5981)
Correct for Stray Light: No (USB2G5981)
Number of Pixels in Processed Spectrum: 2048
>>>>>Begin Processed Spectral Data<<<<<
344.31	0.00
344.51	98.00
344.71	100.00
344.90	101.00
345.10	101.00
345.30	101.00
345.50	103.00
345.69	105.00
345.89	108.00
346.09	107.00
346.28	108.00
346.48	110.00
346.68	110.00
346.88	109.00
347.07	108.00
347.27	106.00
347.47	103.00
347.66	103.00
347.86	108.00
348.06	110.00
348.25	108.00
348.45	109.00
348.65	112.00
348.85	109.00
349.04	107.00
349.24	108.00
349.44	110.00
349.63	109.00
349.83	111.00
350.02	112.00
350.22	109.00
350.42	112.00
350.61	112.00
350.81	110.00
351.01	110.00
351.20	111.00
351.40	110.00
351.60	112.00
351.79	112.00
351.99	112.00
352.19	109.00
352.38	107.00
352.58	109.00
352.77	108.00
352.97	108.00
353.17	109.00
353.36	108.00
353.56	109.00
353.75	110.00
353.95	110.00
354.15	110.00
354.34	109.00
354.54	107.00
354.73	109.00
354.93	112.00
355.13	112.00
355.32	108.00
355.52	111.00
355.71	111.00
355.91	110.00
356.10	109.00
356.30	108.00
356.50	108.00
356.69	108.00
356.89	109.00
357.08	111.00
357.28	112.00
357.47	110.00
357.67	113.00
357.86	110.00
358.06	108.00
358.25	111.00
358.45	110.00
358.65	108.00
358.84	110.00
359.04	111.00
359.23	111.00
359.43	111.00
359.62	109.00
359.82	107.00
360.01	111.00
360.21	109.00
360.40	109.00
360.60	108.00
360.79	109.00
360.99	108.00
361.18	111.00
361.38	113.00
361.57	112.00
361.77	110.00
361.96	114.00
362.16	115.00
362.35	115.00
362.54	112.00
362.74	112.00
362.93	108.00
363.13	109.00
363.32	108.00
363.52	107.00
363.71	109.00
363.91	113.00
364.10	111.00
364.30	111.00
364.49	113.00
364.68	113.00
364.88	111.00
365.07	109.00
365.27	108.00
365.46	110.00
365.66	112.00
365.85	110.00
366.04	111.00
366.24	113.00
366.43	112.00
366.63	111.00
366.82	112.00
367.01	112.00
367.21	110.00
367.40	109.00
367.60	111.00
367.79	111.00
367.98	112.00
368.18	110.00
368.37	107.00
368.56	110.00
368.76	112.00
368.95	111.00
369.15	116.00
369.34	115.00
369.53	112.00
369.73	113.00
369.92	112.00
370.11	110.00
370.31	113.00
370.50	111.00
370.69	112.00
370.89	113.00
371.08	112.00
371.27	112.00
371.47	113.00
371.66	111.00
371.85	114.00
372.05	113.00
372.24	110.00
372.43	110.00
372.63	111.00
372.82	113.00
373.01	112.00
373.21	112.00
373.40	114.00
373.59	116.00
373.78	114.00
373.98	116.00
374.17	117.00
374.36	115.00
374.56	111.00
374.75	110.00
374.94	110.00
375.13	114.00
375.33	114.00
375.52	114.00
375.71	112.00
375.91	110.00
376.10	111.00
376.29	112.00
376.48	112.00
376.68	114.00
376.87	113.00
377.06	115.00
377.25	114.00
377.45	112.00
377.64	112.00
377.83	111.00
378.02	112.00
378.21	112.00
378.41	110.00
378.60	110.00
378.79	112.00
378.98	114.00
379.18	113.00
379.37	115.00
379.56	115.00
379.75	116.00
379.94	111.00
380.14	111.00
380.33	110.00
380.52	113.00
380.71	113.00
380.90	112.00
381.09	113.00
381.29	113.00
381.48	112.00
381.67	111.00
381.86	114.00
382.05	116.00
382.25	120.00
382.44	117.00
382.63	115.00
382.82	112.00
383.01	112.00
383.20	112.00
383.39	112.00
383.59	112.00
383.78	112.00
383.97	108.00
384.16	111.00
384.35	113.00
384.54	111.00
384.73	111.00
384.92	112.00
385.12	113.00
385.31	114.00
385.50	116.00
385.69	112.00
385.88	111.00
386.07	114.00
386.26	115.00
386.45	113.00
386.64	115.00
386.84	115.00
387.03	115.00
387.22	114.00
387.41	113.00
387.60	113.00
387.79	117.00
387.98	115.00
388.17	115.00
388.36	115.00
388.55	119.00
388.74	114.00
388.93	114.00
389.12	113.00
389.31	113.00
389.51	110.00
389.70	111.00
389.89	111.00
390.08	112.00
390.27	111.00
390.46	113.00
390.65	113.00
390.84	114.00
391.03	114.00
391.22	113.00
391.41	116.00
391.60	112.00
391.79	113.00
391.98	117.00
392.17	118.00
392.36	115.00
392.55	114.00
392.74	115.00
392.93	117.00
393.12	114.00
393.31	115.00
393.50	118.00
393.69	116.00
393.88	114.00
394.07	111.00
394.26	112.00
394.45	116.00
394.64	118.00
394.83	117.00
395.02	113.00
395.21	112.00
395.40	111.00
395.59	114.00
395.77	113.00
395.96	111.00
396.15	111.00
396.34	113.00
396.53	113.00
396.72	113.00
396.91	113.00
397.10	114.00
397.29	116.00
397.48	114.00
397.67	112.00
397.86	111.00
398.05	111.00
398.24	113.00
398.43	113.00
398.61	113.00
398.80	116.00
398.99	116.00
399.18	113.00
399.37	111.00
399.56	113.00
399.75	113.00
399.94	116.00
400.13	117.00
400.31	120.00
400.50	114.00
400.69	115.00
400.88	112.00
401.07	110.00
401.26	111.00
401.45	113.00
401.64	116.00
401.82	116.00
402.01	115.00
402.20	115.00
402.39	114.00
402.58	114.00
402.77	114.00
402.95	116.00
403.14	114.00
403.33	111.00
403.52	115.00
403.71	114.00
403.90	111.00
404.08	110.00
404.27	112.00
404.46	110.00
404.65	109.00
404.84	111.00
405.02	109.00
405.21	112.00
405.40	110.00
405.59	112.00
405.78	114.00
405.96	112.00
406.15	116.00
406.34	114.00
406.53	111.00
406.72	112.00
406.90	116.00
407.09	115.00
407.28	113.00
407.47	110.00
407.65	112.00
407.84	112.00
408.03	113.00
408.22	114.00
408.40	113.00
408.59	115.00
408.78	118.00
408.97	113.00
409.15	115.00
409.34	113.00
409.53	114.00
409.72	111.00
409.90	113.00
410.09	115.00
410.28	114.00
410.47	115.00
410.65	112.00
410.84	113.00
411.03	113.00
411.21	114.00
411.40	109.00
411.59	112.00
411.78	111.00
411.96	110.00
412.15	112.00
412.34	114.00
412.52	115.00
412.71	114.00
412.90	114.00
413.08	114.00
413.27	111.00
413.46	111.00
413.64	115.00
413.83	115.00
414.02	112.00
414.20	114.00
414.39	113.00
414.58	115.00
414.76	113.00
414.95	113.00
415.14	111.00
415.32	112.00
415.51	110.00
415.69	114.00
415.88	117.00
416.07	113.00
416.25	113.00
416.44	114.00
416.63	114.00
416.81	112.00
417.00	110.00
417.18	110.00
417.37	113.00
417.56	111.00
417.74	110.00
417.93	112.00
418.11	111.00
418.30	109.00
418.49	112.00
418.67	113.00
418.86	114.00
419.04	116.00
419.23	114.00
419.42	114.00
419.60	113.00
419.79	113.00
419.97	110.00
420.16	111.00
420.34	110.00
420.53	111.00
420.72	113.00
420.90	114.00
421.09	113.00
421.27	112.00
421.46	114.00
421.64	115.00
421.83	114.00
422.01	115.00
422.20	110.00
422.38	113.00
422.57	113.00
422.75	112.00
422.94	112.00
423.12	111.00
423.31	112.00
423.49	112.00
423.68	115.00
423.86	112.00
424.05	112.00
424.23	112.00
424.42	113.00
424.60	112.00
424.79	112.00
424.97	113.00
425.16	112.00
425.34	112.00
425.53	110.00
425.71	112.00
425.90	113.00
426.08	113.00
426.27	112.00
426.45	111.00
426.64	113.00
426.82	113.00
427.01	113.00
427.19	114.00
427.38	115.00
427.56	114.00
427.74	114.00
427.93	113.00
428.11	113.00
428.30	113.00
428.48	111.00
428.67	111.00
428.85	112.00
429.03	111.00
429.22	115.00
429.40	114.00
429.59	111.00
429.77	112.00
429.95	112.00
430.14	111.00
430.32	110.00
430.51	110.00
430.69	111.00
430.87	114.00
431.06	115.00
431.24	116.00
431.43	112.00
431.61	111.00
431.79	112.00
431.98	111.00
432.16	112.00
432.34	113.00
432.53	114.00
432.71	113.00
432.90	110.00
433.08	108.00
433.26	107.00
433.45	109.00
433.63	109.00
433.81	113.00
434.00	114.00
434.18	112.00
434.36	110.00
434.55	110.00
434.73	111.00
434.91	111.00
435.10	111.00
435.28	112.00
435.46	113.00
435.65	114.00
435.83	112.00
436.01	110.00
436.20	109.00
436.38	110.00
436.56	111.00
436.74	109.00
436.93	110.00
437.11	113.00
437.29	115.00
437.48	116.00
437.66	112.00
437.84	113.00
438.02	112.00
438.21	112.00
438.39	114.00
438.57	112.00
438.75	112.00
438.94	110.00
439.12	110.00
439.30	112.00
439.48	114.00
439.67	111.00
439.85	109.00
440.03	109.00
440.21	108.00
440.40	111.00
440.58	111.00
440.76	110.00
440.94	111.00
441.13	112.00
441.31	110.00
441.49	113.00
441.67	113.00
441.85	116.00
442.04	112.00
442.22	111.00
442.40	111.00
442.58	110.00
442.76	113.00
442.95	113.00
443.13	111.00
443.31	111.00
443.49	112.00
443.67	111.00
443.86	109.00
444.04	110.00
444.22	113.00
444.40	112.00
444.58	112.00
444.76	110.00
444.95	111.00
445.13	112.00
445.31	112.00
445.49	112.00
445.67	112.00
445.85	111.00
446.04	111.00
446.22	111.00
446.40	111.00
446.58	112.00
446.76	112.00
446.94	113.00
447.12	113.00
447.30	113.00
447.49	110.00
447.67	112.00
447.85	117.00
448.03	115.00
448.21	111.00
448.39	114.00
448.57	112.00
448.75	110.00
448.93	111.00
449.12	111.00
449.30	112.00
449.48	112.00
449.66	112.00
449.84	109.00
450.02	110.00
450.20	113.00
450.38	116.00
450.56	112.00
450.74	109.00
450.92	110.00
451.10	110.00
451.28	109.00
451.46	109.00
451.64	110.00
451.83	110.00
452.01	109.00
452.19	110.00
452.37	114.00
452.55	112.00
452.73	112.00
452.91	111.00
453.09	115.00
453.27	115.00
453.45	113.00
453.63	115.00
453.81	114.00
453.99	111.00
454.17	111.00
454.35	109.00
454.53	111.00
454.71	111.00
454.89	110.00
455.07	111.00
455.25	112.00
455.43	116.00
455.61	114.00
455.79	112.00
455.97	110.00
456.15	111.00
456.33	112.00
456.51	112.00
456.69	110.00
456.87	107.00
457.05	108.00
457.23	109.00
457.41	112.00
457.59	114.00
457.76	113.00
457.94	109.00
458.12	108.00
458.30	109.00
458.48	110.00
458.66	111.00
458.84	112.00
459.02	110.00
459.20	111.00
459.38	111.00
459.56	110.00
459.74	110.00
459.92	112.00
460.10	110.00
460.27	110.00
460.45	114.00
460.63	110.00
460.81	112.00
460.99	113.00
461.17	113.00
461.35	110.00
461.53	112.00
461.71	111.00
461.88	108.00
462.06	108.00
462.24	112.00
462.42	113.00
462.60	112.00
462.78	114.00
462.96	112.00
463.14	110.00
463.31	111.00
463.49	109.00
463.67	109.00
463.85	112.00
464.03	111.00
464.21	111.00
464.38	110.00
464.56	109.00
464.74	109.00
464.92	112.00
465.10	111.00
465.28	111.00
465.45	111.00
465.63	110.00
465.81	110.00
465.99	108.00
466.17	108.00
466.35	113.00
466.52	114.00
466.70	112.00
466.88	109.00
467.06	109.00
467.24	109.00
467.41	111.00
467.59	112.00
467.77	113.00
467.95	109.00
468.12	108.00
468.30	111.00
468.48	113.00
468.66	111.00
468.84	108.00
469.01	108.00
469.19	110.00
469.37	111.00
469.55	112.00
469.72	110.00
469.90	111.00
470.08	110.00
470.26	109.00
470.43	108.00
470.61	106.00
470.79	107.00
470.96	109.00
471.14	110.00
471.32	110.00
471.50	110.00
471.67	112.00
471.85	112.00
472.03	113.00
472.20	112.00
472.38	112.00
472.56	113.00
472.74	110.00
472.91	107.00
473.09	108.00
473.27	112.00
473.44	115.00
473.62	114.00
473.80	110.00
473.97	110.00
474.15	113.00
474.33	113.00
474.50	110.00
474.68	109.00
474.86	109.00
475.03	113.00
475.21	114.00
475.39	114.00
475.56	113.00
475.74	111.00
475.92	111.00
476.09	115.00
476.27	113.00
476.45	113.00
476.62	112.00
476.80	115.00
476.97	113.00
477.15	113.00
477.33	113.00
477.50	111.00
477.68	110.00
477.86	112.00
478.03	111.00
478.21	110.00
478.38	113.00
478.56	113.00
478.74	112.00
478.91	111.00
479.09	111.00
479.26	111.00
479.44	111.00
479.62	113.00
479.79	111.00
479.97	112.00
480.14	108.00
480.32	111.00
480.49	114.00
480.67	111.00
480.85	109.00
481.02	111.00
481.20	110.00
481.37	110.00
481.55	114.00
481.72	110.00
481.90	110.00
482.07	112.00
482.25	112.00
482.42	112.00
482.60	112.00
482.78	112.00
482.95	112.00
483.13	112.00
483.30	111.00
483.48	112.00
483.65	113.00
483.83	112.00
484.00	112.00
484.18	109.00
484.35	111.00
484.53	119.00
484.70	114.00
484.88	111.00
485.05	111.00
485.23	112.00
485.40	110.00
485.58	110.00
485.75	110.00
485.93	110.00
486.10	110.00
486.27	112.00
486.45	110.00
486.62	109.00
486.80	111.00
486.97	110.00
487.15	111.00
487.32	110.00
487.50	109.00
487.67	107.00
487.85	109.00
488.02	108.00
488.19	110.00
488.37	109.00
488.54	110.00
488.72	111.00
488.89	113.00
489.07	113.00
489.24	111.00
489.41	111.00
489.59	110.00
489.76	111.00
489.94	110.00
490.11	112.00
490.28	114.00
490.46	113.00
490.63	112.00
490.81	112.00
490.98	111.00
491.15	114.00
491.33	113.00
491.50	114.00
491.68	111.00
491.85	112.00
492.02	112.00
492.20	112.00
492.37	112.00
492.54	111.00
492.72	111.00
492.89	111.00
493.06	113.00
493.24	113.00
493.41	111.00
493.58	111.00
493.76	111.00
493.93	110.00
494.10	112.00
494.28	109.00
494.45	111.00
494.62	109.00
494.80	110.00
494.97	111.00
495.14	112.00
495.32	114.00
495.49	114.00
495.66	111.00
495.84	114.00
496.01	116.00
496.18	113.00
496.36	112.00
496.53	113.00
496.70	114.00
496.87	114.00
497.05	114.00
497.22	111.00
497.39	111.00
497.57	111.00
497.74	109.00
497.91	109.00
498.08	109.00
498.26	108.00
498.43	109.00
498.60	109.00
498.77	109.00
498.95	109.00
499.12	111.00
499.29	114.00
499.46	111.00
499.64	113.00
499.81	112.00
499.98	110.00
500.15	112.00
500.33	110.00
500.50	112.00
500.67	109.00
500.84	109.00
501.01	110.00
501.19	111.00
501.36	111.00
501.53	109.00
501.70	110.00
501.87	110.00
502.05	110.00
502.22	109.00
502.39	108.00
502.56	110.00
502.73	111.00
502.91	114.00
503.08	115.00
503.25	113.00
503.42	111.00
503.59	111.00
503.77	108.00
503.94	108.00
504.11	107.00
504.28	108.00
504.45	110.00
504.62	112.00
504.79	109.00
504.97	107.00
505.14	111.00
505.31	109.00
505.48	109.00
505.65	110.00
505.82	110.00
505.99	110.00
506.17	110.00
506.34	108.00
506.51	107.00
506.68	108.00
506.85	109.00
507.02	110.00
507.19	111.00
507.36	111.00
507.53	110.00
507.71	109.00
507.88	109.00
508.05	111.00
508.22	115.00
508.39	113.00
508.56	111.00
508.73	109.00
508.90	112.00
509.07	113.00
509.24	111.00
509.41	110.00
509.58	109.00
509.76	108.00
509.93	107.00
510.10	111.00
510.27	110.00
510.44	110.00
510.61	106.00
510.78	110.00
510.95	109.00
511.12	109.00
511.29	108.00
511.46	109.00
511.63	108.00
511.80	108.00
511.97	110.00
512.14	108.00
512.31	108.00
512.48	109.00
512.65	110.00
512.82	109.00
512.99	110.00
513.16	111.00
513.33	113.00
513.50	112.00
513.67	110.00
513.84	112.00
514.01	113.00
514.18	112.00
514.35	112.00
514.52	110.00
514.69	110.00
514.86	111.00
515.03	110.00
515.20	108.00
515.37	111.00
515.54	110.00
515.71	111.00
515.88	110.00
516.05	110.00
516.22	110.00
516.39	109.00
516.56	108.00
516.73	111.00
516.90	114.00
517.06	117.00
517.23	116.00
517.40	116.00
517.57	112.00
517.74	112.00
517.91	111.00
518.08	111.00
518.25	113.00
518.42	111.00
518.59	112.00
518.76	110.00
518.93	110.00
519.09	112.00
519.26	113.00
519.43	111.00
519.60	112.00
519.77	113.00
519.94	114.00
520.11	112.00
520.28	112.00
520.45	113.00
520.61	111.00
520.78	110.00
520.95	110.00
521.12	109.00
521.29	110.00
521.46	110.00
521.63	108.00
521.79	110.00
521.96	110.00
522.13	109.00
522.30	110.00
522.47	111.00
522.64	114.00
522.80	114.00
522.97	114.00
523.14	112.00
523.31	110.00
523.48	110.00
523.65	112.00
523.81	113.00
523.98	111.00
524.15	109.00
524.32	110.00
524.49	114.00
524.65	112.00
524.82	110.00
524.99	111.00
525.16	108.00
525.33	109.00
525.49	108.00
525.66	108.00
525.83	112.00
526.00	113.00
526.17	111.00
526.33	108.00
526.50	110.00
526.67	111.00
526.84	110.00
527.00	109.00
527.17	110.00
527.34	110.00
527.51	109.00
527.67	109.00
527.84	111.00
528.01	112.00
528.18	111.00
528.34	109.00
528.51	111.00
528.68	112.00
528.85	110.00
529.01	109.00
529.18	110.00
529.35	111.00
529.51	113.00
529.68	113.00
529.85	112.00
530.02	111.00
530.18	111.00
530.35	114.00
530.52	112.00
530.68	112.00
530.85	109.00
531.02	110.00
531.18	113.00
531.35	113.00
531.52	112.00
531.68	112.00
531.85	114.00
532.02	111.00
532.18	111.00
532.35	113.00
532.52	112.00
532.68	111.00
532.85	112.00
533.02	113.00
533.18	112.00
533.35	113.00
533.52	110.00
533.68	108.00
533.85	109.00
534.02	110.00
534.18	114.00
534.35	115.00
534.51	111.00
534.68	111.00
534.85	112.00
535.01	110.00
535.18	109.00
535.35	110.00
535.51	110.00
535.68	112.00
535.84	110.00
536.01	113.00
536.18	111.00
536.34	113.00
536.51	114.00
536.67	114.00
536.84	112.00
537.00	112.00
537.17	112.00
537.34	111.00
537.50	110.00
537.67	110.00
537.83	108.00
538.00	109.00
538.16	108.00
538.33	107.00
538.50	106.00
538.66	107.00
538.83	108.00
538.99	110.00
539.16	108.00
539.32	108.00
539.49	108.00
539.65	111.00
539.82	112.00
539.98	108.00
540.15	108.00
540.31	108.00
540.48	110.00
540.65	108.00
540.81	109.00
540.98	109.00
541.14	108.00
541.31	110.00
541.47	109.00
541.64	108.00
541.80	110.00
541.97	109.00
542.13	108.00
542.29	108.00
542.46	111.00
542.62	112.00
542.79	115.00
542.95	114.00
543.12	110.00
543.28	108.00
543.45	109.00
543.61	115.00
543.78	113.00
543.94	112.00
544.11	112.00
544.27	111.00
544.44	112.00
544.60	113.00
544.76	112.00
544.93	110.00
545.09	110.00
545.26	110.00
545.42	109.00
545.59	109.00
545.75	110.00
545.91	110.00
546.08	112.00
546.24	112.00
546.41	112.00
546.57	111.00
546.73	113.00
546.90	114.00
547.06	111.00
547.23	112.00
547.39	113.00
547.55	115.00
547.72	112.00
547.88	109.00
548.05	107.00
548.21	108.00
548.37	110.00
548.54	110.00
548.70	108.00
548.86	109.00
549.03	111.00
549.19	112.00
549.36	113.00
549.52	112.00
549.68	112.00
549.85	110.00
550.01	112.00
550.17	110.00
550.34	110.00
550.50	114.00
550.66	110.00
550.83	110.00
550.99	113.00
551.15	113.00
551.32	110.00
551.48	108.00
551.64	111.00
551.81	110.00
551.97	112.00
552.13	109.00
552.29	112.00
552.46	114.00
552.62	112.00
552.78	110.00
552.95	108.00
553.11	109.00
553.27	110.00
553.43	111.00
553.60	112.00
553.76	114.00
553.92	112.00
554.09	110.00
554.25	112.00
554.41	112.00
554.57	112.00
554.74	113.00
554.90	112.00
555.06	113.00
555.22	113.00
555.39	112.00
555.55	112.00
555.71	113.00
555.87	111.00
556.04	113.00
556.20	117.00
556.36	114.00
556.52	110.00
556.69	109.00
556.85	112.00
557.01	112.00
557.17	108.00
557.33	109.00
557.50	110.00
557.66	109.00
557.82	110.00
557.98	111.00
558.14	109.00
558.31	109.00
558.47	107.00
558.63	110.00
558.79	109.00
558.95	107.00
559.12	107.00
559.28	109.00
559.44	109.00
559.60	110.00
559.76	110.00
559.92	111.00
560.09	115.00
560.25	112.00
560.41	109.00
560.57	110.00
560.73	112.00
560.89	114.00
561.05	111.00
561.22	112.00
561.38	111.00
561.54	110.00
561.70	111.00
561.86	112.00
562.02	110.00
562.18	108.00
562.34	108.00
562.51	109.00
562.67	114.00
562.83	114.00
562.99	112.00
563.15	113.00
563.31	112.00
563.47	109.00
563.63	108.00
563.79	111.00
563.95	109.00
564.12	109.00
564.28	111.00
564.44	109.00
564.60	108.00
564.76	110.00
564.92	110.00
565.08	112.00
565.24	111.00
565.40	110.00
565.56	110.00
565.72	112.00
565.88	113.00
566.04	114.00
566.20	113.00
566.36	112.00
566.52	111.00
566.69	111.00
566.85	111.00
567.01	111.00
567.17	109.00
567.33	112.00
567.49	114.00
567.65	112.00
567.81	114.00
567.97	112.00
568.13	111.00
568.29	109.00
568.45	110.00
568.61	109.00
568.77	111.00
568.93	108.00
569.09	109.00
569.25	111.00
569.41	112.00
569.57	111.00
569.73	111.00
569.89	109.00
570.05	113.00
570.21	113.00
570.37	112.00
570.53	113.00
570.68	112.00
570.84	111.00
571.00	112.00
571.16	110.00
571.32	110.00
571.48	111.00
571.64	110.00
571.80	111.00
571.96	110.00
572.12	106.00
572.28	108.00
572.44	110.00
572.60	111.00
572.76	109.00
572.92	109.00
573.08	109.00
573.23	109.00
573.39	110.00
573.55	110.00
573.71	113.00
573.87	112.00
574.03	110.00
574.19	109.00
574.35	109.00
574.51	111.00
574.67	111.00
574.82	109.00
574.98	110.00
575.14	111.00
575.30	110.00
575.46	110.00
575.62	111.00
575.78	111.00
575.94	111.00
576.09	113.00
576.25	117.00
576.41	114.00
576.57	113.00
576.73	111.00
576.89	110.00
577.05	111.00
577.20	110.00
577.36	110.00
577.52	112.00
577.68	110.00
577.84	109.00
578.00	114.00
578.15	113.00
578.31	112.00
578.47	110.00
578.63	113.00
578.79	113.00
578.94	112.00
579.10	110.00
579.26	113.00
579.42	109.00
579.58	109.00
579.73	109.00
579.89	107.00
580.05	108.00
580.21	111.00
580.37	113.00
580.52	113.00
580.68	112.00
580.84	112.00
581.00	111.00
581.15	112.00
581.31	110.00
581.47	108.00
581.63	109.00
581.78	109.00
581.94	106.00
582.10	110.00
582.26	111.00
582.41	113.00
582.57	113.00
582.73	112.00
582.89	109.00
583.04	109.00
583.20	107.00
583.36	108.00
583.52	108.00
583.67	109.00
583.83	112.00
583.99	110.00
584.14	109.00
584.30	110.00
584.46	109.00
584.62	110.00
584.77	110.00
584.93	112.00
585.09	115.00
585.24	115.00
585.40	115.00
585.56	114.00
585.71	112.00
585.87	111.00
586.03	111.00
586.18	110.00
586.34	111.00
586.50	112.00
586.65	112.00
586.81	112.00
586.97	111.00
587.12	110.00
587.28	110.00
587.44	110.00
587.59	111.00
587.75	110.00
587.91	110.00
588.06	110.00
588.22	109.00
588.37	109.00
588.53	107.00
588.69	108.00
588.84	111.00
589.00	111.00
589.16	106.00
589.31	108.00
589.47	109.00
589.62	109.00
589.78	114.00
589.94	112.00
590.09	112.00
590.25	109.00
590.40	111.00
590.56	111.00
590.72	111.00
590.87	111.00
591.03	110.00
591.18	109.00
591.34	110.00
591.49	111.00
591.65	108.00
591.81	107.00
591.96	107.00
592.12	107.00
592.27	107.00
592.43	107.00
592.58	110.00
592.74	110.00
592.89	110.00
593.05	110.00
593.21	109.00
593.36	107.00
593.52	107.00
593.67	106.00
593.83	108.00
593.98	113.00
594.14	111.00
594.29	110.00
594.45	113.00
594.60	112.00
594.76	111.00
594.91	110.00
595.07	110.00
595.22	112.00
595.38	111.00
595.53	112.00
595.69	112.00
595.84	112.00
596.00	110.00
596.15	111.00
596.31	111.00
596.46	109.00
596.62	110.00
596.77	111.00
596.93	111.00
597.08	114.00
597.23	113.00
597.39	109.00
597.54	110.00
597.70	110.00
597.85	113.00
598.01	115.00
598.16	113.00
598.32	110.00
598.47	111.00
598.62	108.00
598.78	108.00
598.93	108.00
599.09	109.00
599.24	111.00
599.40	111.00
599.55	113.00
599.70	114.00
599.86	114.00
600.01	112.00
600.17	109.00
600.32	109.00
600.47	109.00
600.63	109.00
600.78	107.00
600.94	106.00
601.09	107.00
601.24	108.00
601.40	108.00
601.55	109.00
601.70	111.00
601.86	110.00
602.01	109.00
602.17	106.00
602.32	106.00
602.47	106.00
602.63	109.00
602.78	110.00
602.93	112.00
603.09	108.00
603.24	110.00
603.39	108.00
603.55	112.00
603.70	110.00
603.85	117.00
604.01	113.00
604.16	111.00
604.31	111.00
604.47	112.00
604.62	113.00
604.77	111.00
604.93	118.00
605.08	113.00
605.23	110.00
605.39	109.00
605.54	114.00
605.69	113.00
605.84	110.00
606.00	112.00
606.15	110.00
606.30	111.00
606.46	112.00
606.61	112.00
606.76	114.00
606.91	111.00
607.07	108.00
607.22	106.00
607.37	110.00
607.52	111.00
607.68	112.00
607.83	113.00
607.98	114.00
608.13	109.00
608.29	109.00
608.44	112.00
608.59	111.00
608.74	109.00
608.90	109.00
609.05	108.00
609.20	110.00
609.35	109.00
609.51	109.00
609.66	114.00
609.81	116.00
609.96	111.00
610.11	110.00
610.27	106.00
610.42	108.00
610.57	112.00
610.72	108.00
610.87	106.00
611.03	109.00
611.18	110.00
611.33	110.00
611.48	109.00
611.63	110.00
611.78	110.00
611.94	110.00
612.09	111.00
612.24	109.00
612.39	108.00
612.54	114.00
612.69	112.00
612.85	109.00
613.00	108.00
613.15	108.00
613.30	108.00
613.45	108.00
613.60	110.00
613.75	109.00
613.91	109.00
614.06	111.00
614.21	110.00
614.36	109.00
614.51	110.00
614.66	111.00
614.81	110.00
614.96	111.00
615.12	110.00
615.27	111.00
615.42	112.00
615.57	109.00
615.72	109.00
615.87	110.00
616.02	108.00
616.17	110.00
616.32	111.00
616.47	111.00
616.63	107.00
616.78	107.00
616.93	110.00
617.08	109.00
617.23	109.00
617.38	110.00
617.53	110.00
617.68	112.00
617.83	115.00
617.98	112.00
618.13	109.00
618.28	112.00
618.43	111.00
618.58	111.00
618.73	113.00
618.88	113.00
619.03	112.00
619.18	111.00
619.33	110.00
619.48	111.00
619.63	112.00
619.79	110.00
619.94	112.00
620.09	111.00
620.24	108.00
620.39	109.00
620.54	110.00
620.69	117.00
620.84	115.00
620.99	112.00
621.14	113.00
621.29	113.00
621.44	111.00
621.58	113.00
621.73	114.00
621.88	113.00
622.03	114.00
622.18	112.00
622.33	111.00
622.48	113.00
622.63	109.00
622.78	108.00
622.93	110.00
623.08	111.00
623.23	108.00
623.38	110.00
623.53	106.00
623.68	108.00
623.83	110.00
623.98	113.00
624.13	115.00
624.28	110.00
624.43	108.00
624.58	110.00
624.72	108.00
624.87	110.00
625.02	110.00
625.17	109.00
625.32	112.00
625.47	112.00
625.62	110.00
625.77	110.00
625.92	112.00
626.07	112.00
626.21	114.00
626.36	112.00
626.51	108.00
626.66	109.00
626.81	109.00
626.96	109.00
627.11	108.00
627.26	110.00
627.40	109.00
627.55	107.00
627.70	107.00
627.85	110.00
628.00	113.00
628.15	113.00
628.30	112.00
628.44	111.00
628.59	109.00
628.74	108.00
628.89	108.00
629.04	110.00
629.19	112.00
629.33	109.00
629.48	109.00
629.63	109.00
629.78	111.00
629.93	110.00
630.08	110.00
630.22	111.00
630.37	109.00
630.52	110.00
630.67	110.00
630.82	112.00
630.96	110.00
631.11	110.00
631.26	110.00
631.41	112.00
631.55	112.00
631.70	111.00
631.85	110.00
632.00	109.00
632.15	110.00
632.29	110.00
632.44	112.00
632.59	114.00
632.74	112.00
632.88	110.00
633.03	109.00
633.18	109.00
633.33	110.00
633.47	112.00
633.62	109.00
633.77	110.00
633.92	110.00
634.06	110.00
634.21	110.00
634.36	109.00
634.51	106.00
634.65	107.00
634.80	108.00
634.95	110.00
635.09	112.00
635.24	114.00
635.39	114.00
635.53	110.00
635.68	110.00
635.83	106.00
635.98	109.00
636.12	109.00
636.27	110.00
636.42	109.00
636.56	108.00
636.71	107.00
636.86	109.00
637.00	108.00
637.15	111.00
637.30	112.00
637.44	112.00
637.59	108.00
637.74	108.00
637.88	112.00
638.03	116.00
638.18	113.00
638.32	115.00
638.47	112.00
638.62	112.00
638.76	116.00
638.91	116.00
639.05	113.00
639.20	112.00
639.35	112.00
639.49	112.00
639.64	110.00
639.79	110.00
639.93	110.00
640.08	110.00
640.22	111.00
640.37	112.00
640.52	110.00
640.66	109.00
640.81	110.00
640.95	110.00
641.10	111.00
641.25	110.00
641.39	107.00
641.54	108.00
641.68	108.00
641.83	108.00
641.97	109.00
642.12	108.00
642.27	109.00
642.41	108.00
642.56	111.00
642.70	114.00
642.85	114.00
642.99	112.00
643.14	112.00
643.28	113.00
643.43	112.00
643.57	111.00
643.72	111.00
643.87	112.00
644.01	111.00
644.16	111.00
644.30	112.00
644.45	112.00
644.59	109.00
644.74	110.00
644.88	110.00
645.03	109.00
645.17	110.00
645.32	110.00
645.46	111.00
645.61	111.00
645.75	111.00
645.90	113.00
646.04	111.00
646.19	110.00
646.33	110.00
646.48	111.00
646.62	110.00
646.77	109.00
646.91	111.00
647.05	111.00
647.20	115.00
647.34	111.00
647.49	109.00
647.63	109.00
647.78	113.00
647.92	111.00
648.07	110.00
648.21	109.00
648.36	106.00
648.50	109.00
648.64	109.00
648.79	112.00
648.93	112.00
649.08	113.00
649.22	111.00
649.37	116.00
649.51	113.00
649.65	111.00
649.80	109.00
649.94	110.00
650.09	111.00
650.23	112.00
650.37	109.00
650.52	109.00
650.66	109.00
650.81	110.00
650.95	110.00
651.09	109.00
651.24	109.00
651.38	109.00
651.52	111.00
651.67	110.00
651.81	109.00
651.96	109.00
652.10	109.00
652.24	109.00
652.39	109.00
652.53	111.00
652.67	110.00
652.82	110.00
652.96	111.00
653.10	110.00
653.25	109.00
653.39	109.00
653.53	109.00
653.68	109.00
653.82	112.00
653.96	113.00
654.11	112.00
654.25	112.00
654.39	111.00
654.54	111.00
654.68	111.00
654.82	111.00
654.97	109.00
655.11	110.00
655.25	112.00
655.39	111.00
655.54	111.00
655.68	112.00
655.82	110.00
655.97	110.00
656.11	109.00
656.25	109.00
656.39	111.00
656.54	110.00
656.68	108.00
656.82	107.00
656.96	109.00
657.11	112.00
657.25	111.00
657.39	109.00
657.53	109.00
657.68	110.00
657.82	110.00
657.96	110.00
658.10	109.00
658.25	108.00
658.39	110.00
658.53	112.00
658.67	110.00
658.82	110.00
658.96	112.00
659.10	113.00
659.24	111.00
659.38	108.00
659.53	108.00
659.67	108.00
659.81	111.00
659.95	111.00
660.09	107.00
660.24	109.00
660.38	109.00
660.52	107.00
660.66	107.00
660.80	114.00
660.95	112.00
661.09	112.00
661.23	110.00
661.37	109.00
661.51	117.00
661.65	116.00
661.80	112.00
661.94	111.00
662.08	112.00
662.22	111.00
662.36	114.00
662.50	110.00
662.64	110.00
662.79	108.00
662.93	110.00
663.07	111.00
663.21	111.00
663.35	113.00
663.49	110.00
663.63	111.00
663.77	109.00
663.92	109.00
664.06	110.00
664.20	108.00
664.34	107.00
664.48	108.00
664.62	110.00
664.76	110.00
664.90	110.00
665.04	109.00
665.18	109.00
665.33	108.00
665.47	108.00
665.61	109.00
665.75	109.00
665.89	110.00
666.03	110.00
666.17	112.00
666.31	111.00
666.45	112.00
666.59	116.00
666.73	113.00
666.87	114.00
667.01	110.00
667.15	112.00
667.29	112.00
667.43	112.00
667.57	109.00
667.71	108.00
667.86	109.00
668.00	109.00
668.14	113.00
668.28	110.00
668.42	112.00
668.56	110.00
668.70	111.00
668.84	111.00
668.98	110.00
669.12	110.00
669.26	112.00
669.40	111.00
669.54	112.00
669.68	110.00
669.82	109.00
669.96	112.00
670.10	112.00
670.24	110.00
670.38	111.00
670.52	109.00
670.66	108.00
670.79	109.00
670.93	108.00
671.07	107.00
671.21	110.00
671.35	112.00
671.49	109.00
671.63	106.00
671.77	106.00
671.91	109.00
672.05	110.00
672.19	110.00
672.33	110.00
672.47	110.00
672.61	110.00
672.75	109.00
672.89	110.00
673.03	110.00
673.16	110.00
673.30	111.00
673.44	112.00
673.58	112.00
673.72	113.00
673.86	113.00
674.00	112.00
674.14	113.00
674.28	112.00
674.42	114.00
674.55	116.00
674.69	111.00
674.83	111.00
674.97	110.00
675.11	110.00
675.25	111.00
675.39	111.00
675.53	117.00
675.66	113.00
675.80	110.00
675.94	109.00
676.08	111.00
676.22	111.00
676.36	109.00
676.50	108.00
676.63	109.00
676.77	108.00
676.91	108.00
677.05	108.00
677.19	113.00
677.33	112.00
677.46	111.00
677.60	110.00
677.74	107.00
677.88	109.00
678.02	110.00
678.16	112.00
678.29	113.00
678.43	110.00
678.57	113.00
678.71	112.00
678.85	110.00
678.98	110.00
679.12	109.00
679.26	108.00
679.40	108.00
679.53	109.00
679.67	112.00
679.81	113.00
679.95	112.00
680.09	109.00
680.22	111.00
680.36	107.00
680.50	107.00
680.64	111.00
680.77	110.00
680.91	109.00
681.05	110.00
681.19	110.00
681.32	108.00
681.46	109.00
681.60	108.00
681.74	110.00
681.87	110.00
682.01	112.00
682.15	111.00
682.28	110.00
682.42	110.00
682.56	111.00
682.70	110.00
682.83	109.00
682.97	110.00
683.11	112.00
683.24	109.00
683.38	110.00
683.52	110.00
683.65	109.00
683.79	107.00
683.93	108.00
684.07	107.00
684.20	107.00
684.34	107.00
684.48	108.00
684.61	111.00
684.75	110.00
684.89	108.00
685.02	115.00
685.16	113.00
685.30	113.00
685.43	114.00
685.57	115.00
685.70	114.00
685.84	111.00
685.98	110.00
>>>>>End Processed Spectral Data<<<<<
