SpectraSuite Data File
++++++++++++++++++++++++++++++++++++
Date: Mon Oct 13 14:51:33 PDT 2014
User: ugastro
Dark Spectrum Present: No
Reference Spectrum Present: No
Number of Sampled Component Spectra: 1
Spectrometers: USB2G5981
Integration Time (usec): 100000 (USB2G5981)
Spectra Averaged: 1 (USB2G5981)
Boxcar Smoothing: 0 (USB2G5981)
Correct for Electrical Dark: No (USB2G5981)
Strobe/Lamp Enabled: No (USB2G5981)
Correct for Detector Non-linearity: No (USB2G5981)
Correct for Stray Light: No (USB2G5981)
Number of Pixels in Processed Spectrum: 2048
>>>>>Begin Processed Spectral Data<<<<<
344.31	0.00
344.51	102.00
344.71	102.00
344.90	101.00
345.10	101.00
345.30	106.00
345.50	106.00
345.69	108.00
345.89	111.00
346.09	110.00
346.28	109.00
346.48	111.00
346.68	115.00
346.88	113.00
347.07	112.00
347.27	112.00
347.47	112.00
347.66	112.00
347.86	112.00
348.06	110.00
348.25	109.00
348.45	113.00
348.65	110.00
348.85	110.00
349.04	110.00
349.24	107.00
349.44	113.00
349.63	113.00
349.83	111.00
350.02	109.00
350.22	108.00
350.42	111.00
350.61	112.00
350.81	109.00
351.01	109.00
351.20	110.00
351.40	109.00
351.60	110.00
351.79	110.00
351.99	111.00
352.19	108.00
352.38	108.00
352.58	110.00
352.77	112.00
352.97	113.00
353.17	113.00
353.36	109.00
353.56	111.00
353.75	111.00
353.95	110.00
354.15	111.00
354.34	111.00
354.54	111.00
354.73	108.00
354.93	109.00
355.13	111.00
355.32	111.00
355.52	109.00
355.71	109.00
355.91	112.00
356.10	114.00
356.30	113.00
356.50	112.00
356.69	113.00
356.89	114.00
357.08	113.00
357.28	113.00
357.47	112.00
357.67	113.00
357.86	115.00
358.06	113.00
358.25	113.00
358.45	110.00
358.65	111.00
358.84	112.00
359.04	114.00
359.23	114.00
359.43	114.00
359.62	114.00
359.82	113.00
360.01	114.00
360.21	113.00
360.40	113.00
360.60	112.00
360.79	111.00
360.99	113.00
361.18	115.00
361.38	115.00
361.57	115.00
361.77	113.00
361.96	115.00
362.16	119.00
362.35	113.00
362.54	113.00
362.74	112.00
362.93	112.00
363.13	112.00
363.32	112.00
363.52	112.00
363.71	112.00
363.91	111.00
364.10	114.00
364.30	113.00
364.49	111.00
364.68	113.00
364.88	113.00
365.07	113.00
365.27	112.00
365.46	111.00
365.66	110.00
365.85	111.00
366.04	112.00
366.24	111.00
366.43	113.00
366.63	111.00
366.82	112.00
367.01	112.00
367.21	109.00
367.40	109.00
367.60	113.00
367.79	111.00
367.98	111.00
368.18	111.00
368.37	112.00
368.56	113.00
368.76	113.00
368.95	113.00
369.15	115.00
369.34	114.00
369.53	112.00
369.73	114.00
369.92	113.00
370.11	112.00
370.31	114.00
370.50	113.00
370.69	114.00
370.89	112.00
371.08	113.00
371.27	115.00
371.47	114.00
371.66	113.00
371.85	112.00
372.05	114.00
372.24	113.00
372.43	113.00
372.63	113.00
372.82	111.00
373.01	111.00
373.21	114.00
373.40	111.00
373.59	111.00
373.78	113.00
373.98	112.00
374.17	113.00
374.36	114.00
374.56	111.00
374.75	111.00
374.94	113.00
375.13	114.00
375.33	114.00
375.52	114.00
375.71	113.00
375.91	115.00
376.10	116.00
376.29	114.00
376.48	114.00
376.68	114.00
376.87	115.00
377.06	116.00
377.25	115.00
377.45	116.00
377.64	115.00
377.83	112.00
378.02	112.00
378.21	111.00
378.41	113.00
378.60	112.00
378.79	112.00
378.98	112.00
379.18	112.00
379.37	114.00
379.56	114.00
379.75	113.00
379.94	114.00
380.14	115.00
380.33	113.00
380.52	114.00
380.71	114.00
380.90	115.00
381.09	116.00
381.29	114.00
381.48	113.00
381.67	114.00
381.86	119.00
382.05	119.00
382.25	118.00
382.44	118.00
382.63	117.00
382.82	115.00
383.01	112.00
383.20	112.00
383.39	115.00
383.59	115.00
383.78	114.00
383.97	114.00
384.16	111.00
384.35	111.00
384.54	112.00
384.73	114.00
384.92	117.00
385.12	120.00
385.31	119.00
385.50	117.00
385.69	115.00
385.88	114.00
386.07	116.00
386.26	115.00
386.45	111.00
386.64	114.00
386.84	115.00
387.03	115.00
387.22	113.00
387.41	114.00
387.60	115.00
387.79	116.00
387.98	117.00
388.17	121.00
388.36	118.00
388.55	117.00
388.74	116.00
388.93	115.00
389.12	115.00
389.31	113.00
389.51	112.00
389.70	114.00
389.89	113.00
390.08	115.00
390.27	114.00
390.46	112.00
390.65	112.00
390.84	115.00
391.03	115.00
391.22	115.00
391.41	115.00
391.60	114.00
391.79	115.00
391.98	116.00
392.17	113.00
392.36	115.00
392.55	112.00
392.74	114.00
392.93	116.00
393.12	115.00
393.31	112.00
393.50	112.00
393.69	113.00
393.88	115.00
394.07	116.00
394.26	114.00
394.45	113.00
394.64	114.00
394.83	114.00
395.02	114.00
395.21	118.00
395.40	116.00
395.59	117.00
395.77	113.00
395.96	114.00
396.15	116.00
396.34	116.00
396.53	116.00
396.72	115.00
396.91	117.00
397.10	115.00
397.29	114.00
397.48	115.00
397.67	111.00
397.86	111.00
398.05	112.00
398.24	111.00
398.43	115.00
398.61	114.00
398.80	112.00
398.99	116.00
399.18	117.00
399.37	116.00
399.56	113.00
399.75	115.00
399.94	113.00
400.13	115.00
400.31	117.00
400.50	116.00
400.69	121.00
400.88	118.00
401.07	115.00
401.26	113.00
401.45	113.00
401.64	116.00
401.82	117.00
402.01	115.00
402.20	116.00
402.39	114.00
402.58	113.00
402.77	115.00
402.95	120.00
403.14	117.00
403.33	117.00
403.52	116.00
403.71	115.00
403.90	114.00
404.08	113.00
404.27	113.00
404.46	113.00
404.65	112.00
404.84	112.00
405.02	113.00
405.21	116.00
405.40	112.00
405.59	112.00
405.78	113.00
405.96	113.00
406.15	114.00
406.34	115.00
406.53	114.00
406.72	113.00
406.90	116.00
407.09	113.00
407.28	111.00
407.47	114.00
407.65	114.00
407.84	112.00
408.03	111.00
408.22	115.00
408.40	115.00
408.59	114.00
408.78	112.00
408.97	111.00
409.15	113.00
409.34	116.00
409.53	114.00
409.72	116.00
409.90	116.00
410.09	113.00
410.28	112.00
410.47	112.00
410.65	115.00
410.84	114.00
411.03	113.00
411.21	112.00
411.40	115.00
411.59	114.00
411.78	111.00
411.96	113.00
412.15	113.00
412.34	113.00
412.52	112.00
412.71	112.00
412.90	115.00
413.08	114.00
413.27	110.00
413.46	111.00
413.64	115.00
413.83	115.00
414.02	114.00
414.20	112.00
414.39	111.00
414.58	112.00
414.76	114.00
414.95	115.00
415.14	113.00
415.32	113.00
415.51	113.00
415.69	115.00
415.88	119.00
416.07	116.00
416.25	112.00
416.44	112.00
416.63	113.00
416.81	112.00
417.00	112.00
417.18	111.00
417.37	111.00
417.56	115.00
417.74	118.00
417.93	113.00
418.11	113.00
418.30	113.00
418.49	112.00
418.67	114.00
418.86	116.00
419.04	118.00
419.23	114.00
419.42	112.00
419.60	114.00
419.79	112.00
419.97	114.00
420.16	114.00
420.34	112.00
420.53	110.00
420.72	111.00
420.90	115.00
421.09	113.00
421.27	112.00
421.46	111.00
421.64	112.00
421.83	111.00
422.01	114.00
422.20	114.00
422.38	113.00
422.57	112.00
422.75	111.00
422.94	114.00
423.12	114.00
423.31	111.00
423.49	113.00
423.68	110.00
423.86	114.00
424.05	115.00
424.23	113.00
424.42	116.00
424.60	117.00
424.79	114.00
424.97	114.00
425.16	113.00
425.34	112.00
425.53	111.00
425.71	110.00
425.90	112.00
426.08	112.00
426.27	112.00
426.45	113.00
426.64	115.00
426.82	112.00
427.01	110.00
427.19	112.00
427.38	118.00
427.56	117.00
427.74	119.00
427.93	118.00
428.11	114.00
428.30	113.00
428.48	113.00
428.67	113.00
428.85	113.00
429.03	114.00
429.22	117.00
429.40	114.00
429.59	111.00
429.77	112.00
429.95	112.00
430.14	115.00
430.32	115.00
430.51	115.00
430.69	113.00
430.87	114.00
431.06	115.00
431.24	113.00
431.43	114.00
431.61	115.00
431.79	115.00
431.98	112.00
432.16	110.00
432.34	110.00
432.53	113.00
432.71	112.00
432.90	114.00
433.08	113.00
433.26	114.00
433.45	112.00
433.63	111.00
433.81	111.00
434.00	112.00
434.18	114.00
434.36	113.00
434.55	111.00
434.73	113.00
434.91	113.00
435.10	115.00
435.28	112.00
435.46	117.00
435.65	114.00
435.83	114.00
436.01	114.00
436.20	116.00
436.38	113.00
436.56	110.00
436.74	111.00
436.93	111.00
437.11	114.00
437.29	116.00
437.48	113.00
437.66	110.00
437.84	110.00
438.02	109.00
438.21	110.00
438.39	108.00
438.57	109.00
438.75	115.00
438.94	114.00
439.12	113.00
439.30	112.00
439.48	111.00
439.67	112.00
439.85	113.00
440.03	111.00
440.21	111.00
440.40	112.00
440.58	112.00
440.76	111.00
440.94	115.00
441.13	114.00
441.31	116.00
441.49	114.00
441.67	113.00
441.85	115.00
442.04	114.00
442.22	114.00
442.40	114.00
442.58	111.00
442.76	112.00
442.95	111.00
443.13	113.00
443.31	112.00
443.49	112.00
443.67	112.00
443.86	111.00
444.04	110.00
444.22	111.00
444.40	111.00
444.58	111.00
444.76	111.00
444.95	113.00
445.13	113.00
445.31	112.00
445.49	115.00
445.67	116.00
445.85	114.00
446.04	112.00
446.22	113.00
446.40	112.00
446.58	113.00
446.76	112.00
446.94	110.00
447.12	110.00
447.30	111.00
447.49	111.00
447.67	111.00
447.85	116.00
448.03	115.00
448.21	112.00
448.39	112.00
448.57	112.00
448.75	111.00
448.93	110.00
449.12	112.00
449.30	114.00
449.48	116.00
449.66	114.00
449.84	114.00
450.02	114.00
450.20	112.00
450.38	115.00
450.56	113.00
450.74	111.00
450.92	109.00
451.10	110.00
451.28	112.00
451.46	113.00
451.64	109.00
451.83	108.00
452.01	110.00
452.19	115.00
452.37	113.00
452.55	113.00
452.73	114.00
452.91	113.00
453.09	112.00
453.27	112.00
453.45	114.00
453.63	116.00
453.81	116.00
453.99	116.00
454.17	114.00
454.35	113.00
454.53	111.00
454.71	111.00
454.89	108.00
455.07	108.00
455.25	110.00
455.43	112.00
455.61	114.00
455.79	112.00
455.97	111.00
456.15	112.00
456.33	112.00
456.51	113.00
456.69	113.00
456.87	111.00
457.05	114.00
457.23	115.00
457.41	117.00
457.59	115.00
457.76	114.00
457.94	113.00
458.12	113.00
458.30	113.00
458.48	111.00
458.66	112.00
458.84	112.00
459.02	113.00
459.20	114.00
459.38	114.00
459.56	113.00
459.74	112.00
459.92	110.00
460.10	110.00
460.27	110.00
460.45	112.00
460.63	112.00
460.81	111.00
460.99	111.00
461.17	110.00
461.35	113.00
461.53	114.00
461.71	113.00
461.88	113.00
462.06	114.00
462.24	111.00
462.42	111.00
462.60	112.00
462.78	112.00
462.96	114.00
463.14	114.00
463.31	113.00
463.49	114.00
463.67	111.00
463.85	112.00
464.03	115.00
464.21	114.00
464.38	112.00
464.56	111.00
464.74	112.00
464.92	114.00
465.10	113.00
465.28	112.00
465.45	114.00
465.63	114.00
465.81	113.00
465.99	113.00
466.17	112.00
466.35	113.00
466.52	114.00
466.70	115.00
466.88	113.00
467.06	115.00
467.24	114.00
467.41	112.00
467.59	114.00
467.77	116.00
467.95	115.00
468.12	112.00
468.30	111.00
468.48	112.00
468.66	113.00
468.84	115.00
469.01	114.00
469.19	111.00
469.37	113.00
469.55	115.00
469.72	114.00
469.90	113.00
470.08	112.00
470.26	114.00
470.43	115.00
470.61	114.00
470.79	112.00
470.96	110.00
471.14	110.00
471.32	111.00
471.50	111.00
471.67	111.00
471.85	113.00
472.03	114.00
472.20	112.00
472.38	110.00
472.56	112.00
472.74	110.00
472.91	110.00
473.09	110.00
473.27	115.00
473.44	117.00
473.62	113.00
473.80	116.00
473.97	116.00
474.15	112.00
474.33	111.00
474.50	112.00
474.68	112.00
474.86	110.00
475.03	125.00
475.21	120.00
475.39	116.00
475.56	113.00
475.74	114.00
475.92	112.00
476.09	113.00
476.27	114.00
476.45	111.00
476.62	108.00
476.80	109.00
476.97	113.00
477.15	113.00
477.33	110.00
477.50	108.00
477.68	111.00
477.86	114.00
478.03	115.00
478.21	115.00
478.38	115.00
478.56	118.00
478.74	115.00
478.91	115.00
479.09	115.00
479.26	111.00
479.44	113.00
479.62	113.00
479.79	116.00
479.97	114.00
480.14	110.00
480.32	111.00
480.49	111.00
480.67	110.00
480.85	111.00
481.02	115.00
481.20	110.00
481.37	110.00
481.55	112.00
481.72	113.00
481.90	112.00
482.07	113.00
482.25	112.00
482.42	112.00
482.60	113.00
482.78	114.00
482.95	112.00
483.13	113.00
483.30	113.00
483.48	115.00
483.65	113.00
483.83	110.00
484.00	109.00
484.18	112.00
484.35	114.00
484.53	119.00
484.70	118.00
484.88	113.00
485.05	113.00
485.23	114.00
485.40	112.00
485.58	110.00
485.75	113.00
485.93	114.00
486.10	111.00
486.27	112.00
486.45	112.00
486.62	114.00
486.80	113.00
486.97	112.00
487.15	109.00
487.32	110.00
487.50	113.00
487.67	113.00
487.85	113.00
488.02	111.00
488.19	111.00
488.37	112.00
488.54	113.00
488.72	112.00
488.89	110.00
489.07	116.00
489.24	116.00
489.41	114.00
489.59	116.00
489.76	114.00
489.94	112.00
490.11	112.00
490.28	114.00
490.46	112.00
490.63	109.00
490.81	111.00
490.98	111.00
491.15	112.00
491.33	114.00
491.50	114.00
491.68	111.00
491.85	112.00
492.02	113.00
492.20	113.00
492.37	115.00
492.54	113.00
492.72	111.00
492.89	110.00
493.06	109.00
493.24	110.00
493.41	110.00
493.58	112.00
493.76	109.00
493.93	108.00
494.10	109.00
494.28	109.00
494.45	111.00
494.62	110.00
494.80	111.00
494.97	112.00
495.14	113.00
495.32	111.00
495.49	112.00
495.66	111.00
495.84	109.00
496.01	114.00
496.18	114.00
496.36	114.00
496.53	113.00
496.70	113.00
496.87	112.00
497.05	109.00
497.22	113.00
497.39	111.00
497.57	112.00
497.74	112.00
497.91	112.00
498.08	110.00
498.26	110.00
498.43	112.00
498.60	114.00
498.77	113.00
498.95	115.00
499.12	113.00
499.29	114.00
499.46	114.00
499.64	113.00
499.81	114.00
499.98	112.00
500.15	113.00
500.33	110.00
500.50	111.00
500.67	110.00
500.84	111.00
501.01	112.00
501.19	112.00
501.36	108.00
501.53	110.00
501.70	113.00
501.87	115.00
502.05	112.00
502.22	112.00
502.39	110.00
502.56	111.00
502.73	110.00
502.91	111.00
503.08	112.00
503.25	111.00
503.42	112.00
503.59	112.00
503.77	110.00
503.94	111.00
504.11	112.00
504.28	111.00
504.45	110.00
504.62	110.00
504.79	110.00
504.97	112.00
505.14	114.00
505.31	111.00
505.48	112.00
505.65	113.00
505.82	114.00
505.99	111.00
506.17	113.00
506.34	112.00
506.51	113.00
506.68	112.00
506.85	113.00
507.02	112.00
507.19	114.00
507.36	112.00
507.53	115.00
507.71	114.00
507.88	111.00
508.05	109.00
508.22	112.00
508.39	114.00
508.56	113.00
508.73	113.00
508.90	113.00
509.07	110.00
509.24	112.00
509.41	111.00
509.58	112.00
509.76	109.00
509.93	110.00
510.10	109.00
510.27	108.00
510.44	110.00
510.61	114.00
510.78	117.00
510.95	115.00
511.12	113.00
511.29	110.00
511.46	111.00
511.63	110.00
511.80	106.00
511.97	106.00
512.14	111.00
512.31	112.00
512.48	113.00
512.65	111.00
512.82	111.00
512.99	114.00
513.16	112.00
513.33	111.00
513.50	110.00
513.67	112.00
513.84	111.00
514.01	109.00
514.18	112.00
514.35	109.00
514.52	111.00
514.69	112.00
514.86	112.00
515.03	113.00
515.20	113.00
515.37	111.00
515.54	108.00
515.71	112.00
515.88	114.00
516.05	114.00
516.22	113.00
516.39	111.00
516.56	112.00
516.73	117.00
516.90	116.00
517.06	117.00
517.23	115.00
517.40	113.00
517.57	115.00
517.74	111.00
517.91	112.00
518.08	114.00
518.25	112.00
518.42	111.00
518.59	111.00
518.76	113.00
518.93	115.00
519.09	115.00
519.26	112.00
519.43	112.00
519.60	113.00
519.77	113.00
519.94	112.00
520.11	111.00
520.28	111.00
520.45	111.00
520.61	110.00
520.78	108.00
520.95	110.00
521.12	114.00
521.29	112.00
521.46	112.00
521.63	112.00
521.79	111.00
521.96	112.00
522.13	111.00
522.30	110.00
522.47	111.00
522.64	113.00
522.80	113.00
522.97	109.00
523.14	109.00
523.31	114.00
523.48	114.00
523.65	115.00
523.81	117.00
523.98	112.00
524.15	110.00
524.32	112.00
524.49	116.00
524.65	114.00
524.82	113.00
524.99	112.00
525.16	112.00
525.33	112.00
525.49	114.00
525.66	116.00
525.83	114.00
526.00	113.00
526.17	112.00
526.33	113.00
526.50	114.00
526.67	115.00
526.84	115.00
527.00	115.00
527.17	115.00
527.34	113.00
527.51	111.00
527.67	110.00
527.84	111.00
528.01	113.00
528.18	113.00
528.34	111.00
528.51	112.00
528.68	112.00
528.85	112.00
529.01	111.00
529.18	110.00
529.35	109.00
529.51	112.00
529.68	114.00
529.85	113.00
530.02	113.00
530.18	110.00
530.35	110.00
530.52	110.00
530.68	112.00
530.85	111.00
531.02	110.00
531.18	110.00
531.35	109.00
531.52	112.00
531.68	110.00
531.85	112.00
532.02	112.00
532.18	113.00
532.35	114.00
532.52	111.00
532.68	111.00
532.85	110.00
533.02	110.00
533.18	111.00
533.35	114.00
533.52	112.00
533.68	111.00
533.85	112.00
534.02	112.00
534.18	116.00
534.35	116.00
534.51	114.00
534.68	112.00
534.85	112.00
535.01	112.00
535.18	110.00
535.35	114.00
535.51	114.00
535.68	114.00
535.84	112.00
536.01	113.00
536.18	113.00
536.34	111.00
536.51	110.00
536.67	110.00
536.84	112.00
537.00	112.00
537.17	112.00
537.34	111.00
537.50	110.00
537.67	111.00
537.83	114.00
538.00	113.00
538.16	113.00
538.33	112.00
538.50	111.00
538.66	112.00
538.83	111.00
538.99	110.00
539.16	110.00
539.32	112.00
539.49	111.00
539.65	112.00
539.82	112.00
539.98	111.00
540.15	114.00
540.31	111.00
540.48	111.00
540.65	114.00
540.81	114.00
540.98	113.00
541.14	113.00
541.31	112.00
541.47	113.00
541.64	114.00
541.80	110.00
541.97	110.00
542.13	109.00
542.29	110.00
542.46	110.00
542.62	110.00
542.79	112.00
542.95	110.00
543.12	110.00
543.28	114.00
543.45	112.00
543.61	115.00
543.78	114.00
543.94	112.00
544.11	112.00
544.27	108.00
544.44	108.00
544.60	109.00
544.76	110.00
544.93	110.00
545.09	115.00
545.26	112.00
545.42	112.00
545.59	112.00
545.75	112.00
545.91	113.00
546.08	112.00
546.24	112.00
546.41	112.00
546.57	113.00
546.73	113.00
546.90	112.00
547.06	113.00
547.23	112.00
547.39	112.00
547.55	114.00
547.72	114.00
547.88	115.00
548.05	114.00
548.21	114.00
548.37	112.00
548.54	111.00
548.70	111.00
548.86	111.00
549.03	109.00
549.19	109.00
549.36	108.00
549.52	110.00
549.68	112.00
549.85	116.00
550.01	116.00
550.17	112.00
550.34	112.00
550.50	116.00
550.66	115.00
550.83	110.00
550.99	113.00
551.15	113.00
551.32	110.00
551.48	108.00
551.64	110.00
551.81	111.00
551.97	109.00
552.13	108.00
552.29	110.00
552.46	111.00
552.62	110.00
552.78	111.00
552.95	109.00
553.11	108.00
553.27	111.00
553.43	112.00
553.60	112.00
553.76	114.00
553.92	110.00
554.09	112.00
554.25	112.00
554.41	111.00
554.57	112.00
554.74	112.00
554.90	112.00
555.06	109.00
555.22	113.00
555.39	114.00
555.55	113.00
555.71	113.00
555.87	112.00
556.04	113.00
556.20	115.00
556.36	115.00
556.52	111.00
556.69	111.00
556.85	116.00
557.01	111.00
557.17	111.00
557.33	110.00
557.50	109.00
557.66	111.00
557.82	110.00
557.98	114.00
558.14	112.00
558.31	111.00
558.47	110.00
558.63	111.00
558.79	110.00
558.95	110.00
559.12	112.00
559.28	113.00
559.44	113.00
559.60	114.00
559.76	113.00
559.92	113.00
560.09	112.00
560.25	112.00
560.41	113.00
560.57	111.00
560.73	116.00
560.89	114.00
561.05	113.00
561.22	110.00
561.38	111.00
561.54	112.00
561.70	110.00
561.86	110.00
562.02	112.00
562.18	113.00
562.34	111.00
562.51	112.00
562.67	115.00
562.83	113.00
562.99	114.00
563.15	114.00
563.31	117.00
563.47	116.00
563.63	110.00
563.79	108.00
563.95	107.00
564.12	110.00
564.28	112.00
564.44	110.00
564.60	110.00
564.76	108.00
564.92	112.00
565.08	113.00
565.24	114.00
565.40	115.00
565.56	116.00
565.72	115.00
565.88	112.00
566.04	111.00
566.20	110.00
566.36	113.00
566.52	114.00
566.69	114.00
566.85	113.00
567.01	115.00
567.17	115.00
567.33	113.00
567.49	111.00
567.65	109.00
567.81	109.00
567.97	112.00
568.13	109.00
568.29	110.00
568.45	108.00
568.61	107.00
568.77	110.00
568.93	114.00
569.09	112.00
569.25	113.00
569.41	113.00
569.57	113.00
569.73	110.00
569.89	110.00
570.05	113.00
570.21	113.00
570.37	112.00
570.53	112.00
570.68	109.00
570.84	110.00
571.00	112.00
571.16	112.00
571.32	117.00
571.48	113.00
571.64	111.00
571.80	114.00
571.96	113.00
572.12	112.00
572.28	111.00
572.44	109.00
572.60	111.00
572.76	111.00
572.92	111.00
573.08	114.00
573.23	114.00
573.39	112.00
573.55	114.00
573.71	112.00
573.87	109.00
574.03	113.00
574.19	111.00
574.35	112.00
574.51	112.00
574.67	112.00
574.82	110.00
574.98	109.00
575.14	110.00
575.30	112.00
575.46	110.00
575.62	112.00
575.78	110.00
575.94	110.00
576.09	111.00
576.25	109.00
576.41	112.00
576.57	112.00
576.73	113.00
576.89	111.00
577.05	108.00
577.20	110.00
577.36	113.00
577.52	112.00
577.68	113.00
577.84	111.00
578.00	112.00
578.15	113.00
578.31	114.00
578.47	112.00
578.63	111.00
578.79	113.00
578.94	109.00
579.10	112.00
579.26	112.00
579.42	110.00
579.58	109.00
579.73	110.00
579.89	110.00
580.05	111.00
580.21	110.00
580.37	113.00
580.52	113.00
580.68	112.00
580.84	112.00
581.00	109.00
581.15	110.00
581.31	112.00
581.47	110.00
581.63	109.00
581.78	108.00
581.94	113.00
582.10	117.00
582.26	115.00
582.41	113.00
582.57	113.00
582.73	113.00
582.89	111.00
583.04	113.00
583.20	112.00
583.36	110.00
583.52	110.00
583.67	112.00
583.83	112.00
583.99	111.00
584.14	113.00
584.30	111.00
584.46	112.00
584.62	112.00
584.77	111.00
584.93	110.00
585.09	113.00
585.24	112.00
585.40	112.00
585.56	112.00
585.71	110.00
585.87	111.00
586.03	112.00
586.18	112.00
586.34	116.00
586.50	114.00
586.65	111.00
586.81	111.00
586.97	113.00
587.12	112.00
587.28	117.00
587.44	113.00
587.59	114.00
587.75	113.00
587.91	113.00
588.06	113.00
588.22	115.00
588.37	114.00
588.53	110.00
588.69	111.00
588.84	113.00
589.00	112.00
589.16	111.00
589.31	118.00
589.47	115.00
589.62	112.00
589.78	114.00
589.94	111.00
590.09	110.00
590.25	112.00
590.40	109.00
590.56	106.00
590.72	111.00
590.87	113.00
591.03	115.00
591.18	114.00
591.34	112.00
591.49	110.00
591.65	106.00
591.81	108.00
591.96	113.00
592.12	112.00
592.27	110.00
592.43	112.00
592.58	111.00
592.74	110.00
592.89	122.00
593.05	116.00
593.21	115.00
593.36	112.00
593.52	111.00
593.67	110.00
593.83	112.00
593.98	114.00
594.14	114.00
594.29	113.00
594.45	113.00
594.60	114.00
594.76	114.00
594.91	113.00
595.07	113.00
595.22	114.00
595.38	111.00
595.53	108.00
595.69	109.00
595.84	112.00
596.00	111.00
596.15	112.00
596.31	113.00
596.46	111.00
596.62	111.00
596.77	113.00
596.93	117.00
597.08	115.00
597.23	112.00
597.39	111.00
597.54	111.00
597.70	109.00
597.85	112.00
598.01	116.00
598.16	116.00
598.32	114.00
598.47	113.00
598.62	116.00
598.78	114.00
598.93	110.00
599.09	109.00
599.24	109.00
599.40	110.00
599.55	115.00
599.70	114.00
599.86	114.00
600.01	112.00
600.17	113.00
600.32	114.00
600.47	112.00
600.63	111.00
600.78	111.00
600.94	111.00
601.09	110.00
601.24	110.00
601.40	110.00
601.55	110.00
601.70	108.00
601.86	110.00
602.01	110.00
602.17	108.00
602.32	110.00
602.47	112.00
602.63	114.00
602.78	113.00
602.93	112.00
603.09	112.00
603.24	113.00
603.39	111.00
603.55	108.00
603.70	110.00
603.85	117.00
604.01	114.00
604.16	115.00
604.31	113.00
604.47	115.00
604.62	112.00
604.77	110.00
604.93	115.00
605.08	114.00
605.23	111.00
605.39	112.00
605.54	114.00
605.69	115.00
605.84	116.00
606.00	114.00
606.15	113.00
606.30	112.00
606.46	113.00
606.61	114.00
606.76	111.00
606.91	109.00
607.07	109.00
607.22	108.00
607.37	110.00
607.52	110.00
607.68	108.00
607.83	109.00
607.98	110.00
608.13	110.00
608.29	109.00
608.44	111.00
608.59	110.00
608.74	109.00
608.90	111.00
609.05	112.00
609.20	110.00
609.35	110.00
609.51	108.00
609.66	112.00
609.81	113.00
609.96	112.00
610.11	111.00
610.27	111.00
610.42	112.00
610.57	114.00
610.72	113.00
610.87	113.00
611.03	111.00
611.18	112.00
611.33	113.00
611.48	111.00
611.63	112.00
611.78	112.00
611.94	111.00
612.09	111.00
612.24	113.00
612.39	114.00
612.54	116.00
612.69	112.00
612.85	112.00
613.00	113.00
613.15	111.00
613.30	113.00
613.45	112.00
613.60	109.00
613.75	111.00
613.91	107.00
614.06	108.00
614.21	110.00
614.36	109.00
614.51	110.00
614.66	111.00
614.81	112.00
614.96	112.00
615.12	110.00
615.27	110.00
615.42	114.00
615.57	112.00
615.72	113.00
615.87	112.00
616.02	111.00
616.17	112.00
616.32	109.00
616.47	110.00
616.63	110.00
616.78	110.00
616.93	114.00
617.08	112.00
617.23	111.00
617.38	111.00
617.53	109.00
617.68	108.00
617.83	114.00
617.98	115.00
618.13	114.00
618.28	112.00
618.43	111.00
618.58	109.00
618.73	115.00
618.88	112.00
619.03	109.00
619.18	108.00
619.33	109.00
619.48	109.00
619.63	110.00
619.79	110.00
619.94	112.00
620.09	109.00
620.24	110.00
620.39	111.00
620.54	111.00
620.69	119.00
620.84	118.00
620.99	113.00
621.14	113.00
621.29	113.00
621.44	111.00
621.58	110.00
621.73	112.00
621.88	114.00
622.03	116.00
622.18	115.00
622.33	114.00
622.48	111.00
622.63	110.00
622.78	113.00
622.93	112.00
623.08	108.00
623.23	108.00
623.38	111.00
623.53	112.00
623.68	113.00
623.83	115.00
623.98	114.00
624.13	113.00
624.28	114.00
624.43	113.00
624.58	112.00
624.72	112.00
624.87	113.00
625.02	110.00
625.17	110.00
625.32	110.00
625.47	110.00
625.62	110.00
625.77	115.00
625.92	115.00
626.07	115.00
626.21	115.00
626.36	112.00
626.51	110.00
626.66	111.00
626.81	112.00
626.96	111.00
627.11	109.00
627.26	111.00
627.40	113.00
627.55	111.00
627.70	111.00
627.85	109.00
628.00	109.00
628.15	112.00
628.30	114.00
628.44	112.00
628.59	112.00
628.74	112.00
628.89	113.00
629.04	113.00
629.19	112.00
629.33	111.00
629.48	110.00
629.63	114.00
629.78	116.00
629.93	114.00
630.08	109.00
630.22	111.00
630.37	111.00
630.52	110.00
630.67	112.00
630.82	113.00
630.96	112.00
631.11	112.00
631.26	112.00
631.41	111.00
631.55	109.00
631.70	109.00
631.85	112.00
632.00	110.00
632.15	109.00
632.29	109.00
632.44	108.00
632.59	112.00
632.74	113.00
632.88	110.00
633.03	110.00
633.18	110.00
633.33	112.00
633.47	112.00
633.62	114.00
633.77	113.00
633.92	111.00
634.06	112.00
634.21	111.00
634.36	111.00
634.51	109.00
634.65	110.00
634.80	111.00
634.95	111.00
635.09	107.00
635.24	108.00
635.39	111.00
635.53	113.00
635.68	114.00
635.83	112.00
635.98	112.00
636.12	111.00
636.27	114.00
636.42	113.00
636.56	110.00
636.71	111.00
636.86	112.00
637.00	111.00
637.15	112.00
637.30	111.00
637.44	110.00
637.59	109.00
637.74	110.00
637.88	112.00
638.03	116.00
638.18	115.00
638.32	112.00
638.47	112.00
638.62	116.00
638.76	112.00
638.91	112.00
639.05	112.00
639.20	110.00
639.35	110.00
639.49	112.00
639.64	111.00
639.79	108.00
639.93	108.00
640.08	110.00
640.22	110.00
640.37	111.00
640.52	109.00
640.66	108.00
640.81	111.00
640.95	109.00
641.10	108.00
641.25	109.00
641.39	110.00
641.54	112.00
641.68	109.00
641.83	110.00
641.97	112.00
642.12	110.00
642.27	110.00
642.41	111.00
642.56	112.00
642.70	116.00
642.85	115.00
642.99	114.00
643.14	118.00
643.28	114.00
643.43	110.00
643.57	110.00
643.72	111.00
643.87	110.00
644.01	111.00
644.16	111.00
644.30	112.00
644.45	111.00
644.59	111.00
644.74	110.00
644.88	111.00
645.03	109.00
645.17	108.00
645.32	109.00
645.46	112.00
645.61	111.00
645.75	112.00
645.90	115.00
646.04	112.00
646.19	111.00
646.33	112.00
646.48	111.00
646.62	111.00
646.77	111.00
646.91	111.00
647.05	111.00
647.20	117.00
647.34	115.00
647.49	115.00
647.63	113.00
647.78	113.00
647.92	113.00
648.07	112.00
648.21	113.00
648.36	112.00
648.50	111.00
648.64	110.00
648.79	111.00
648.93	112.00
649.08	113.00
649.22	111.00
649.37	116.00
649.51	114.00
649.65	112.00
649.80	114.00
649.94	110.00
650.09	107.00
650.23	109.00
650.37	109.00
650.52	109.00
650.66	110.00
650.81	111.00
650.95	112.00
651.09	110.00
651.24	111.00
651.38	110.00
651.52	110.00
651.67	113.00
651.81	114.00
651.96	112.00
652.10	110.00
652.24	113.00
652.39	115.00
652.53	118.00
652.67	114.00
652.82	120.00
652.96	115.00
653.10	110.00
653.25	111.00
653.39	112.00
653.53	113.00
653.68	114.00
653.82	110.00
653.96	111.00
654.11	115.00
654.25	114.00
654.39	111.00
654.54	109.00
654.68	110.00
654.82	113.00
654.97	117.00
655.11	115.00
655.25	115.00
655.39	113.00
655.54	111.00
655.68	112.00
655.82	110.00
655.97	110.00
656.11	112.00
656.25	112.00
656.39	111.00
656.54	109.00
656.68	109.00
656.82	114.00
656.96	115.00
657.11	115.00
657.25	113.00
657.39	113.00
657.53	112.00
657.68	112.00
657.82	111.00
657.96	113.00
658.10	113.00
658.25	114.00
658.39	111.00
658.53	111.00
658.67	109.00
658.82	110.00
658.96	110.00
659.10	112.00
659.24	112.00
659.38	114.00
659.53	113.00
659.67	115.00
659.81	118.00
659.95	115.00
660.09	113.00
660.24	110.00
660.38	111.00
660.52	109.00
660.66	110.00
660.80	114.00
660.95	114.00
661.09	112.00
661.23	109.00
661.37	110.00
661.51	113.00
661.65	112.00
661.80	114.00
661.94	114.00
662.08	114.00
662.22	114.00
662.36	114.00
662.50	115.00
662.64	115.00
662.79	114.00
662.93	111.00
663.07	109.00
663.21	111.00
663.35	112.00
663.49	113.00
663.63	113.00
663.77	112.00
663.92	112.00
664.06	111.00
664.20	112.00
664.34	111.00
664.48	112.00
664.62	111.00
664.76	111.00
664.90	111.00
665.04	111.00
665.18	112.00
665.33	113.00
665.47	111.00
665.61	110.00
665.75	108.00
665.89	108.00
666.03	108.00
666.17	109.00
666.31	112.00
666.45	112.00
666.59	113.00
666.73	112.00
666.87	113.00
667.01	111.00
667.15	112.00
667.29	114.00
667.43	113.00
667.57	113.00
667.71	113.00
667.86	113.00
668.00	112.00
668.14	119.00
668.28	114.00
668.42	112.00
668.56	111.00
668.70	113.00
668.84	110.00
668.98	109.00
669.12	111.00
669.26	113.00
669.40	112.00
669.54	109.00
669.68	112.00
669.82	113.00
669.96	111.00
670.10	109.00
670.24	110.00
670.38	112.00
670.52	111.00
670.66	112.00
670.79	111.00
670.93	109.00
671.07	110.00
671.21	113.00
671.35	112.00
671.49	111.00
671.63	110.00
671.77	113.00
671.91	112.00
672.05	110.00
672.19	110.00
672.33	108.00
672.47	108.00
672.61	109.00
672.75	109.00
672.89	109.00
673.03	108.00
673.16	109.00
673.30	113.00
673.44	114.00
673.58	111.00
673.72	111.00
673.86	114.00
674.00	116.00
674.14	115.00
674.28	114.00
674.42	111.00
674.55	112.00
674.69	114.00
674.83	111.00
674.97	110.00
675.11	111.00
675.25	114.00
675.39	113.00
675.53	114.00
675.66	112.00
675.80	110.00
675.94	108.00
676.08	111.00
676.22	110.00
676.36	111.00
676.50	112.00
676.63	111.00
676.77	112.00
676.91	113.00
677.05	114.00
677.19	114.00
677.33	113.00
677.46	113.00
677.60	110.00
677.74	112.00
677.88	111.00
678.02	115.00
678.16	113.00
678.29	112.00
678.43	111.00
678.57	111.00
678.71	112.00
678.85	112.00
678.98	114.00
679.12	113.00
679.26	115.00
679.40	115.00
679.53	110.00
679.67	110.00
679.81	110.00
679.95	112.00
680.09	110.00
680.22	111.00
680.36	111.00
680.50	110.00
680.64	111.00
680.77	111.00
680.91	110.00
681.05	112.00
681.19	112.00
681.32	112.00
681.46	112.00
681.60	113.00
681.74	112.00
681.87	114.00
682.01	115.00
682.15	113.00
682.28	111.00
682.42	111.00
682.56	112.00
682.70	112.00
682.83	112.00
682.97	112.00
683.11	109.00
683.24	109.00
683.38	113.00
683.52	114.00
683.65	116.00
683.79	114.00
683.93	112.00
684.07	113.00
684.20	115.00
684.34	112.00
684.48	112.00
684.61	113.00
684.75	113.00
684.89	112.00
685.02	117.00
685.16	116.00
685.30	113.00
685.43	112.00
685.57	113.00
685.70	113.00
685.84	111.00
685.98	111.00
>>>>>End Processed Spectral Data<<<<<
